#Refractive index of Fe2O3[s]; Amaury H.M.J. Triaud, in Database of Optical Constants for Cosmic Dust, Laboratory Astrophysics Group of the AIU Jena
#Data points: 401
#Wavelength (micron) n  k
0.1	0.96397	0.53633
0.10233	0.98179	0.53994
0.10471	0.99873	0.54191
0.10715	1.01456	0.54244
0.10965	1.02909	0.54172
0.1122	1.04217	0.53998
0.11482	1.05366	0.53744
0.11749	1.06347	0.53436
0.12023	1.07154	0.531
0.12303	1.07786	0.5276
0.12589	1.08243	0.52439
0.12882	1.08528	0.52162
0.13183	1.08644	0.51954
0.1349	1.086	0.51833
0.13804	1.08404	0.51825
0.14125	1.08065	0.5195
0.14454	1.07595	0.52229
0.14791	1.07009	0.52686
0.15136	1.06324	0.53339
0.15488	1.05557	0.54215
0.15849	1.04735	0.55333
0.16218	1.03883	0.56716
0.16596	1.03038	0.58384
0.16982	1.02238	0.60356
0.17378	1.01533	0.62642
0.17783	1.00977	0.65249
0.18197	1.00631	0.68173
0.18621	1.00563	0.71396
0.19055	1.00838	0.74885
0.19498	1.01522	0.78587
0.19953	1.02674	0.82432
0.20417	1.04333	0.86329
0.20893	1.0652	0.90173
0.2138	1.09222	0.93848
0.21878	1.12392	0.97243
0.22387	1.15947	1.00265
0.22909	1.19776	1.02854
0.23442	1.2376	1.04994
0.23988	1.27795	1.06715
0.24547	1.31808	1.08073
0.25119	1.35761	1.09129
0.25704	1.39649	1.09935
0.26303	1.43477	1.10517
0.26915	1.47252	1.10882
0.27542	1.50963	1.11025
0.28184	1.54582	1.10943
0.2884	1.58076	1.10644
0.29512	1.61404	1.1015
0.302	1.64529	1.09503
0.30903	1.6743	1.08756
0.31623	1.70105	1.07976
0.32359	1.72571	1.07226
0.33113	1.74873	1.06564
0.33884	1.77073	1.06029
0.34674	1.79248	1.05639
0.35481	1.81482	1.05377
0.36308	1.83851	1.05195
0.37154	1.86408	1.0501
0.38019	1.89172	1.04718
0.38905	1.92113	1.04203
0.39811	1.95149	1.03373
0.40738	1.9816	1.02167
0.41687	2.01005	1.00586
0.42658	2.03548	0.98686
0.43652	2.0569	0.96582
0.44668	2.07382	0.94412
0.45709	2.08632	0.92325
0.46774	2.09501	0.90459
0.47863	2.10093	0.88915
0.48978	2.10544	0.8776
0.50119	2.11012	0.87008
0.51286	2.11655	0.86616
0.52481	2.12618	0.86476
0.53703	2.13999	0.8642
0.54954	2.15819	0.86234
0.56234	2.18001	0.85703
0.57544	2.20367	0.84659
0.58884	2.22675	0.83039
0.60256	2.24687	0.8089
0.6166	2.2622	0.78362
0.63096	2.27185	0.75645
0.64565	2.27577	0.7293
0.66069	2.27454	0.70366
0.67608	2.26906	0.68056
0.69183	2.2603	0.66057
0.70795	2.24915	0.64394
0.72444	2.23636	0.63067
0.74131	2.22252	0.62065
0.75858	2.20812	0.61371
0.77625	2.19351	0.60963
0.79433	2.17895	0.60822
0.81283	2.16465	0.60929
0.83176	2.15078	0.61267
0.85114	2.13747	0.61819
0.87096	2.12481	0.62574
0.89125	2.11293	0.63518
0.91201	2.10187	0.64642
0.93325	2.09173	0.65933
0.95499	2.08259	0.67384
0.97724	2.0745	0.68984
1	2.06755	0.70726
1.02329	2.06178	0.72601
1.04713	2.05728	0.74598
1.07152	2.05409	0.76708
1.09648	2.05227	0.78923
1.12202	2.05187	0.81232
1.14815	2.05292	0.83626
1.1749	2.0555	0.86093
1.20226	2.05959	0.88623
1.23027	2.06524	0.91204
1.25893	2.07246	0.93826
1.28825	2.08125	0.96478
1.31826	2.09161	0.99149
1.34896	2.10352	1.01828
1.38038	2.11698	1.04505
1.41254	2.13194	1.0717
1.44544	2.14838	1.09812
1.47911	2.16625	1.12424
1.51356	2.18552	1.14995
1.54882	2.20611	1.17519
1.58489	2.22799	1.19987
1.62181	2.25108	1.22393
1.65959	2.27532	1.24729
1.69824	2.30065	1.26992
1.7378	2.327	1.29174
1.77828	2.35429	1.31273
1.8197	2.38246	1.33282
1.86209	2.41142	1.352
1.90546	2.44112	1.37024
1.94984	2.47147	1.38751
1.99526	2.5024	1.40378
2.04174	2.53385	1.41906
2.0893	2.56574	1.43333
2.13796	2.59798	1.44659
2.18776	2.63053	1.45883
2.23872	2.6633	1.47007
2.29087	2.69624	1.4803
2.34423	2.72928	1.48954
2.39883	2.76236	1.49783
2.45471	2.79541	1.50515
2.51189	2.82838	1.51155
2.5704	2.86123	1.51704
2.63027	2.89388	1.52166
2.69153	2.92631	1.52543
2.75423	2.95844	1.52839
2.81838	2.99025	1.53057
2.88403	3.0217	1.53201
2.95121	3.05274	1.53275
3.01995	3.08334	1.53281
3.0903	3.11347	1.53226
3.16228	3.14309	1.53112
3.23594	3.17219	1.52944
3.31131	3.20074	1.52726
3.38844	3.22871	1.52462
3.46737	3.25609	1.52157
3.54813	3.28286	1.51815
3.63078	3.30902	1.51439
3.71535	3.33454	1.51034
3.80189	3.35942	1.50606
3.89045	3.38365	1.50156
3.98107	3.40723	1.4969
4.0738	3.43015	1.49211
4.16869	3.45242	1.48724
4.2658	3.47403	1.48231
4.36516	3.49499	1.47737
4.46684	3.5153	1.47246
4.57088	3.53496	1.46761
4.67735	3.55397	1.46283
4.7863	3.57236	1.45819
4.89779	3.59011	1.45371
5.01187	3.60725	1.44941
5.12861	3.62379	1.44533
5.24807	3.6397	1.44149
5.37032	3.65505	1.43793
5.49541	3.6698	1.43466
5.62341	3.68398	1.43171
5.7544	3.6976	1.42912
5.88844	3.71067	1.4269
6.0256	3.7232	1.42508
6.16595	3.7352	1.42368
6.30957	3.74668	1.42273
6.45654	3.75764	1.42222
6.60693	3.7681	1.42222
6.76083	3.77808	1.4227
6.91831	3.78756	1.42373
7.07946	3.79656	1.42529
7.24436	3.8051	1.42742
7.4131	3.81316	1.43014
7.58578	3.82075	1.43346
7.76247	3.82788	1.43742
7.94328	3.83456	1.44202
8.12831	3.84077	1.44728
8.31764	3.84651	1.45325
8.51138	3.85179	1.45993
8.70964	3.85659	1.46735
8.91251	3.86091	1.47554
9.12011	3.86472	1.48453
9.33254	3.86803	1.49434
9.54993	3.8708	1.50502
9.77237	3.87301	1.5166
10	3.87464	1.52911
10.23293	3.87562	1.54265
10.47129	3.87595	1.55724
10.71519	3.87554	1.57292
10.96478	3.87434	1.5898
11.22018	3.87227	1.60796
11.48154	3.86924	1.62752
11.74898	3.86511	1.64862
12.02264	3.85974	1.6714
12.30269	3.85295	1.6961
12.58925	3.84453	1.72296
12.8825	3.83422	1.75231
13.18257	3.82169	1.78456
13.48963	3.80645	1.82044
13.80384	3.78784	1.8609
14.12538	3.7654	1.90685
14.4544	3.73799	1.96037
14.79108	3.70431	2.02463
15.13561	3.66355	2.10291
15.48817	3.61317	2.20612
15.84893	3.55437	2.34344
16.2181	3.49292	2.55011
16.59587	3.45905	2.86675
16.98244	3.57613	3.36073
17.37801	4.2297	3.89584
17.78279	5.29536	3.65486
18.19701	5.58089	2.75204
18.62087	5.27338	2.30164
19.05461	4.99574	2.15206
19.49845	4.79451	2.12371
19.95262	4.64853	2.14606
20.41738	4.53811	2.19315
20.89296	4.45057	2.25561
21.37962	4.37571	2.32914
21.87762	4.30873	2.41376
22.38721	4.2464	2.51111
22.90868	4.18673	2.62427
23.44229	4.12896	2.75799
23.98833	4.074	2.91908
24.54709	4.02563	3.11709
25.11886	3.99284	3.36465
25.70396	3.99349	3.67697
26.30268	4.06259	4.07194
26.91535	4.30193	4.56237
27.54229	4.82917	5.04819
28.18383	5.67047	5.26281
28.84032	6.55652	5.01649
29.51209	7.18903	4.32132
30.19952	7.22563	3.58335
30.90295	7.03966	3.13676
31.62278	6.8177	2.85791
32.35937	6.60578	2.70413
33.11311	6.44044	2.64547
33.88442	6.30933	2.62433
34.67369	6.20065	2.62472
35.48134	6.11927	2.64522
36.30781	6.05657	2.67582
37.15352	6.00391	2.71152
38.01894	5.9678	2.75412
38.90451	5.93886	2.79913
39.81072	5.91716	2.84658
40.73803	5.90429	2.89654
41.68694	5.8939	2.9472
42.65795	5.89215	3.00008
43.65158	5.89164	3.05326
44.66836	5.89707	3.10792
45.70882	5.90397	3.16295
46.77351	5.91543	3.21914
47.86301	5.92805	3.27565
48.97788	5.94471	3.33326
50.11872	5.96184	3.39102
51.28614	5.98309	3.45004
52.48075	6.00433	3.50906
53.70318	6.02923	3.56934
54.95409	6.05465	3.6298
56.23413	6.08212	3.69106
57.54399	6.11142	3.75303
58.88437	6.14088	3.81507
60.25596	6.17388	3.87867
61.6595	6.20688	3.94226
63.09573	6.24137	4.00657
64.56542	6.27798	4.07193
66.06934	6.31458	4.13728
67.6083	6.35338	4.2038
69.1831	6.39358	4.27106
70.79458	6.43378	4.33833
72.4436	6.47621	4.4069
74.13102	6.52007	4.47629
75.85776	6.56392	4.54568
77.62471	6.60927	4.616
79.43282	6.6569	4.68775
81.28305	6.70454	4.75949
83.17638	6.75218	4.83124
85.1138	6.80349	4.90541
87.09636	6.85514	4.97981
89.12509	6.90678	5.05421
91.20108	6.95902	5.12902
93.32543	7.01497	5.20642
95.49926	7.07092	5.28382
97.72372	7.12687	5.36122
100	7.18282	5.43862
102.3293	7.24351	5.51948
104.71285	7.30419	5.60034
107.15193	7.36488	5.6812
109.64782	7.42557	5.76206
112.20185	7.48851	5.84464
114.81536	7.55451	5.92955
117.48976	7.62051	6.01445
120.22644	7.68651	6.09936
123.02688	7.75251	6.18426
125.89254	7.8204	6.27066
128.82496	7.89251	6.36039
131.82567	7.96463	6.45012
134.89629	8.03674	6.53986
138.03843	8.10885	6.62959
141.25375	8.18096	6.71932
144.54398	8.25676	6.81207
147.91084	8.3361	6.90771
151.35612	8.41545	7.00335
154.88166	8.49479	7.09899
158.48932	8.57413	7.19463
162.18101	8.65348	7.29028
165.95869	8.73282	7.38592
169.82437	8.81939	7.48766
173.78008	8.9076	7.59078
177.82794	8.99581	7.6939
181.97009	9.08402	7.79702
186.20871	9.17223	7.90014
190.54607	9.26044	8.00326
194.98446	9.34865	8.10639
199.52623	9.43686	8.20951
204.17379	9.53531	8.32154
208.92961	9.63493	8.43458
213.79621	9.73456	8.54763
218.77616	9.83418	8.66068
223.87211	9.9338	8.77373
229.08677	10.03342	8.88678
234.42288	10.13305	8.99983
239.88329	10.23267	9.11288
245.47089	10.33229	9.22593
251.18864	10.43516	9.34188
257.03958	10.55053	9.46904
263.0268	10.6659	9.5962
269.15348	10.78127	9.72335
275.42287	10.89664	9.85051
281.83829	11.01202	9.97767
288.40315	11.12739	10.10482
295.12092	11.24276	10.23198
301.99517	11.35813	10.35914
309.02954	11.4735	10.4863
316.22777	11.58887	10.61345
323.59366	11.70425	10.74061
331.13112	11.81962	10.86777
338.84416	11.95234	11.01093
346.73685	12.09208	11.16057
354.81339	12.23182	11.31021
363.07805	12.37156	11.45984
371.53523	12.5113	11.60948
380.1894	12.65103	11.75912
389.04514	12.79077	11.90875
398.10717	12.93051	12.05839
407.38028	13.07025	12.20803
416.86938	13.20999	12.35767
426.57952	13.34972	12.5073
436.51583	13.48946	12.65694
446.68359	13.6292	12.80658
457.08819	13.76894	12.95621
467.73514	13.90868	13.10585
478.63009	14.04842	13.25549
489.77882	14.18815	13.40513
501.18723	14.33282	13.55945
512.86138	14.52041	13.75458
524.80746	14.70801	13.9497
537.0318	14.8956	14.14483
549.54087	15.08319	14.33996
562.34133	15.27078	14.53509
575.43994	15.45837	14.73021
588.84366	15.64596	14.92534
602.55959	15.83355	15.12047
616.595	16.02115	15.31559
630.95734	16.20874	15.51072
645.65423	16.39633	15.70585
660.69345	16.58392	15.90098
676.08298	16.77151	16.0961
691.83097	16.9591	16.29123
707.94578	17.1467	16.48636
724.43596	17.33429	16.68149
741.31024	17.52188	16.87661
758.57758	17.70947	17.07174
776.24712	17.89706	17.26687
794.32823	18.08465	17.462
812.83052	18.27225	17.65712
831.76377	18.45984	17.85225
851.13804	18.64743	18.04738
870.96359	18.83502	18.24251
891.25094	19.02261	18.43763
912.01084	19.2102	18.63276
933.2543	19.3978	18.82789
954.99259	19.58539	19.02302
977.23722	19.77298	19.21814
1000	19.96057	19.41327
